File: pages/assets/E1.txt
"Abaru Precious2b_191740 - RawData"
"Wavelength nm.","Abs."
200.0,
203.5,
207.0,
210.5,
214.0,
217.5,
221.0,
224.5,
228.0,
231.5,
235.0,
238.5,
242.0,
245.5,
249.0,
252.5,
256.0,
259.5,
263.0,
266.5,
270.0,
273.5,
277.0,
280.5,
284.0,
287.5,
291.0,
294.5,
298.0,
301.5,0.8179
305.0,0.7988
308.5,0.7962
312.0,0.7930
315.5,0.7900
319.0,0.7877
322.5,0.7840
326.0,0.7832
329.5,0.7828
333.0,0.7815
336.5,0.7823
340.0,0.7598
343.5,0.7329
347.0,0.7319
350.5,0.7294
354.0,0.7272
357.5,0.7267
361.0,0.7230
364.5,0.7207
368.0,0.7220
371.5,0.7194
375.0,0.7160
378.5,-0.0943
382.0,-0.0186
385.5,-0.5738
389.0,-0.3361
392.5,-0.2964
396.0,-0.2800
399.5,-0.3871
403.0,-0.3443
406.5,-0.3921
410.0,-0.3131
413.5,-0.3996
417.0,-0.4039
420.5,0.7051
424.0,0.7046
427.5,0.7041
431.0,0.7036
434.5,0.7030
438.0,0.7017
441.5,0.7006
445.0,0.6986
448.5,0.6970
452.0,0.6946
455.5,0.6920
459.0,0.6893
462.5,0.6862
466.0,0.6831
469.5,0.6797
473.0,0.6767
476.5,0.6730
480.0,0.6687
483.5,0.6639
487.0,0.6581
490.5,0.6530
494.0,0.6487
497.5,0.6459
501.0,0.6431
504.5,0.6401
508.0,0.6369
511.5,0.6336
515.0,0.6305
518.5,0.6277
522.0,0.6249
525.5,0.6226
529.0,0.6208
532.5,0.6189
536.0,0.6171
539.5,0.6156
543.0,0.6140
546.5,0.6130
550.0,0.6119
553.5,0.6109
557.0,0.6100
560.5,0.6096
564.0,0.6088
567.5,0.6080
571.0,0.6073
574.5,0.6068
578.0,0.6061
581.5,0.6054
585.0,0.6046
588.5,0.6037
592.0,0.6026
595.5,0.6014
599.0,0.6003
602.5,0.5989
606.0,0.5975
609.5,0.5959
613.0,0.5941
616.5,0.5922
620.0,0.5903
623.5,0.5882
627.0,0.5859
630.5,0.5837
634.0,0.5816
637.5,0.5792
641.0,0.5751
644.5,0.5701
648.0,0.5666
651.5,0.5649
655.0,0.5632
658.5,0.5607
662.0,0.5577
665.5,0.5550
669.0,0.5518
672.5,0.5485
676.0,0.5455
679.5,0.5424
683.0,0.5393
686.5,0.5360
690.0,0.5330
693.5,0.5300
697.0,0.5271
700.5,0.5243
704.0,0.5215
707.5,0.5187
711.0,0.5161
714.5,0.5136
718.0,0.5111
721.5,0.5087
725.0,0.5065
728.5,0.5045
732.0,0.5026
735.5,0.5005
739.0,0.4989
742.5,0.4972
746.0,0.4956
749.5,0.4940
753.0,0.4928
756.5,0.4916
760.0,0.4900
763.5,0.4890
767.0,0.4880
770.5,0.4872
774.0,0.4864
777.5,0.4860
781.0,0.4853
784.5,0.4847
788.0,0.4841
791.5,0.4837
795.0,0.4834
798.5,0.4830
802.0,0.4827
805.5,0.4824
809.0,0.4821
812.5,0.4819
816.0,0.4816
819.5,0.4817
823.0,0.4814
826.5,0.4813
830.0,0.4813
833.5,0.4812
837.0,0.4811
840.5,0.4809
844.0,0.4807
847.5,0.4806
851.0,0.4805
854.5,0.4805
858.0,0.4805
861.5,0.4802
865.0,0.4799
868.5,0.4798
872.0,0.4797
875.5,0.4794
879.0,0.4792
882.5,0.4791
886.0,0.4789
889.5,0.4787
893.0,0.4784
896.5,0.4783
900.0,0.4779
903.5,
907.0,
910.5,
914.0,
917.5,
921.0,
924.5,
928.0,
931.5,
935.0,
938.5,
942.0,
945.5,
949.0,
952.5,
956.0,
959.5,
963.0,
966.5,
970.0,
973.5,
977.0,
980.5,
984.0,
987.5,
991.0,
994.5,
998.0,
1001.5,
1005.0,
1008.5,
1012.0,
1015.5,
1019.0,
1022.5,
1026.0,
1029.5,
1033.0,
1036.5,
1040.0,
1043.5,
1047.0,
1050.5,
1054.0,
1057.5,
1061.0,
1064.5,
1068.0,
1071.5,
1075.0,
1078.5,
1082.0,
1085.5,
1089.0,
1092.5,
1096.0,
1099.5,
1100.0,