File: pages/assets/E2.txt
"Abaru Precious2b_192006 - RawData"
"Wavelength nm.","Abs."
200.0,
203.5,
207.0,
210.5,
214.0,
217.5,
221.0,
224.5,
228.0,
231.5,
235.0,
238.5,
242.0,
245.5,
249.0,
252.5,
256.0,
259.5,
263.0,
266.5,
270.0,
273.5,
277.0,
280.5,
284.0,
287.5,
291.0,
294.5,
298.0,
301.5,1.3638
305.0,1.3307
308.5,1.2410
312.0,1.2134
315.5,1.1959
319.0,1.1847
322.5,1.1690
326.0,1.1602
329.5,1.1528
333.0,1.1439
336.5,1.1417
340.0,1.1700
343.5,1.1986
347.0,1.1902
350.5,1.1834
354.0,1.1736
357.5,1.1643
361.0,1.1536
364.5,1.1380
368.0,1.1362
371.5,1.1226
375.0,1.1122
378.5,1.0989
382.0,1.0870
385.5,1.0759
389.0,1.0658
392.5,1.0579
396.0,1.0492
399.5,1.0423
403.0,1.0368
406.5,1.0320
410.0,1.0287
413.5,1.0248
417.0,1.0197
420.5,1.0168
424.0,1.0143
427.5,1.0114
431.0,1.0078
434.5,1.0041
438.0,0.9991
441.5,0.9932
445.0,0.9862
448.5,0.9780
452.0,0.9687
455.5,0.9581
459.0,0.9461
462.5,0.9327
466.0,0.9180
469.5,0.9018
473.0,0.8858
476.5,0.8678
480.0,0.8490
483.5,0.8294
487.0,0.8092
490.5,0.7879
494.0,0.7668
497.5,0.7461
501.0,0.7262
504.5,0.7065
508.0,0.6873
511.5,0.6687
515.0,0.6510
518.5,0.6341
522.0,0.6189
525.5,0.6050
529.0,0.5923
532.5,0.5809
536.0,0.5716
539.5,0.5631
543.0,0.5551
546.5,0.5487
550.0,0.5432
553.5,0.5386
557.0,0.5348
560.5,0.5318
564.0,0.5294
567.5,0.5276
571.0,0.5263
574.5,0.5253
578.0,0.5245
581.5,0.5239
585.0,0.5235
588.5,0.5231
592.0,0.5224
595.5,0.5217
599.0,0.5211
602.5,0.5202
606.0,0.5191
609.5,0.5177
613.0,0.5161
616.5,0.5144
620.0,0.5124
623.5,0.5100
627.0,0.5074
630.5,0.5047
634.0,0.5018
637.5,0.4987
641.0,0.4953
644.5,0.4911
648.0,0.4871
651.5,0.4830
655.0,0.4790
658.5,0.4747
662.0,0.4704
665.5,0.4661
669.0,0.4618
672.5,0.4573
676.0,0.4530
679.5,0.4488
683.0,0.4446
686.5,0.4403
690.0,0.4364
693.5,0.4325
697.0,0.4289
700.5,0.4254
704.0,0.4219
707.5,0.4187
711.0,0.4156
714.5,0.4128
718.0,0.4102
721.5,0.4078
725.0,0.4056
728.5,0.4037
732.0,0.4020
735.5,0.4003
739.0,0.3991
742.5,0.3979
746.0,0.3969
749.5,0.3961
753.0,0.3955
756.5,0.3951
760.0,0.3951
763.5,0.3958
767.0,0.3960
770.5,0.3962
774.0,0.3966
777.5,0.3972
781.0,0.3978
784.5,0.3987
788.0,0.3994
791.5,0.4005
795.0,0.4016
798.5,0.4028
802.0,0.4041
805.5,0.4055
809.0,0.4070
812.5,0.4085
816.0,0.4101
819.5,0.4117
823.0,0.4133
826.5,0.4151
830.0,0.4169
833.5,0.4186
837.0,0.4205
840.5,0.4223
844.0,0.4242
847.5,0.4262
851.0,0.4282
854.5,0.4301
858.0,0.4322
861.5,0.4342
865.0,0.4362
868.5,0.4386
872.0,0.4406
875.5,0.4427
879.0,0.4448
882.5,0.4471
886.0,0.4493
889.5,0.4516
893.0,0.4539
896.5,0.4562
900.0,0.4584
903.5,
907.0,
910.5,
914.0,
917.5,
921.0,
924.5,
928.0,
931.5,
935.0,
938.5,
942.0,
945.5,
949.0,
952.5,
956.0,
959.5,
963.0,
966.5,
970.0,
973.5,
977.0,
980.5,
984.0,
987.5,
991.0,
994.5,
998.0,
1001.5,
1005.0,
1008.5,
1012.0,
1015.5,
1019.0,
1022.5,
1026.0,
1029.5,
1033.0,
1036.5,
1040.0,
1043.5,
1047.0,
1050.5,
1054.0,
1057.5,
1061.0,
1064.5,
1068.0,
1071.5,
1075.0,
1078.5,
1082.0,
1085.5,
1089.0,
1092.5,
1096.0,
1099.5,
1100.0,