File: pages/assets/E3.txt
"Abaru Precious2b_192218 - RawData"
"Wavelength nm.","Abs."
200.0,
203.5,
207.0,
210.5,
214.0,
217.5,
221.0,
224.5,
228.0,
231.5,
235.0,
238.5,
242.0,
245.5,
249.0,
252.5,
256.0,
259.5,
263.0,
266.5,
270.0,
273.5,
277.0,
280.5,
284.0,
287.5,
291.0,
294.5,
298.0,
301.5,1.1325
305.0,1.0751
308.5,1.0392
312.0,1.0118
315.5,0.9839
319.0,0.9634
322.5,0.9449
326.0,0.9344
329.5,0.9279
333.0,0.9252
336.5,0.9226
340.0,0.9221
343.5,0.9258
347.0,0.9246
350.5,0.9160
354.0,0.9069
357.5,0.8977
361.0,0.8830
364.5,0.8700
368.0,0.8510
371.5,0.8356
375.0,0.8191
378.5,0.8046
382.0,0.7919
385.5,0.7812
389.0,0.7715
392.5,0.7653
396.0,0.7611
399.5,0.7590
403.0,0.7590
406.5,0.7608
410.0,0.7643
413.5,0.7681
417.0,0.7725
420.5,0.7770
424.0,0.7806
427.5,0.7840
431.0,0.7859
434.5,0.7867
438.0,0.7861
441.5,0.7835
445.0,0.7791
448.5,0.7732
452.0,0.7655
455.5,0.7560
459.0,0.7448
462.5,0.7319
466.0,0.7172
469.5,0.7013
473.0,0.6847
476.5,0.6672
480.0,0.6486
483.5,0.6297
487.0,0.6104
490.5,0.5907
494.0,0.5713
497.5,0.5525
501.0,0.5350
504.5,0.5177
508.0,0.5018
511.5,0.4868
515.0,0.4731
518.5,0.4610
522.0,0.4505
525.5,0.4416
529.0,0.4340
532.5,0.4278
536.0,0.4231
539.5,0.4194
543.0,0.4162
546.5,0.4139
550.0,0.4122
553.5,0.4110
557.0,0.4101
560.5,0.4096
564.0,0.4092
567.5,0.4088
571.0,0.4086
574.5,0.4082
578.0,0.4077
581.5,0.4071
585.0,0.4062
588.5,0.4049
592.0,0.4034
595.5,0.4017
599.0,0.3997
602.5,0.3975
606.0,0.3950
609.5,0.3921
613.0,0.3889
616.5,0.3857
620.0,0.3822
623.5,0.3784
627.0,0.3746
630.5,0.3707
634.0,0.3666
637.5,0.3623
641.0,0.3583
644.5,0.3538
648.0,0.3495
651.5,0.3452
655.0,0.3410
658.5,0.3368
662.0,0.3327
665.5,0.3288
669.0,0.3251
672.5,0.3215
676.0,0.3180
679.5,0.3147
683.0,0.3116
686.5,0.3086
690.0,0.3059
693.5,0.3033
697.0,0.3011
700.5,0.2990
704.0,0.2970
707.5,0.2954
711.0,0.2939
714.5,0.2927
718.0,0.2916
721.5,0.2908
725.0,0.2900
728.5,0.2895
732.0,0.2893
735.5,0.2889
739.0,0.2889
742.5,0.2890
746.0,0.2892
749.5,0.2895
753.0,0.2898
756.5,0.2905
760.0,0.2912
763.5,0.2927
767.0,0.2935
770.5,0.2944
774.0,0.2953
777.5,0.2965
781.0,0.2975
784.5,0.2987
788.0,0.2997
791.5,0.3010
795.0,0.3022
798.5,0.3036
802.0,0.3048
805.5,0.3062
809.0,0.3077
812.5,0.3090
816.0,0.3104
819.5,0.3119
823.0,0.3132
826.5,0.3147
830.0,0.3161
833.5,0.3176
837.0,0.3190
840.5,0.3204
844.0,0.3219
847.5,0.3234
851.0,0.3249
854.5,0.3263
858.0,0.3277
861.5,0.3292
865.0,0.3308
868.5,0.3325
872.0,0.3338
875.5,0.3353
879.0,0.3368
882.5,0.3385
886.0,0.3401
889.5,0.3415
893.0,0.3433
896.5,0.3449
900.0,0.3464
903.5,
907.0,
910.5,
914.0,
917.5,
921.0,
924.5,
928.0,
931.5,
935.0,
938.5,
942.0,
945.5,
949.0,
952.5,
956.0,
959.5,
963.0,
966.5,
970.0,
973.5,
977.0,
980.5,
984.0,
987.5,
991.0,
994.5,
998.0,
1001.5,
1005.0,
1008.5,
1012.0,
1015.5,
1019.0,
1022.5,
1026.0,
1029.5,
1033.0,
1036.5,
1040.0,
1043.5,
1047.0,
1050.5,
1054.0,
1057.5,
1061.0,
1064.5,
1068.0,
1071.5,
1075.0,
1078.5,
1082.0,
1085.5,
1089.0,
1092.5,
1096.0,
1099.5,
1100.0,